;; JPSS-1_VIIRS_TIR RSR
;;
;; Quinten Vanhellemont 2023-04-18
;; from J1_VIIRS_RSR_DAWG_At-Launch_Public_Release_V2.1_Nov2016
;;
;;
;; datasets: wavelength, RSR
;;
;; BAND I04
;;
3478.01	0.01231916
3481.935	0.01508072
3485.975	0.01815286
3489.91	0.02176201
3494.08	0.02757626
3498.035	0.03355028
3502.0	0.04079787
3506.085	0.05157209
3510.065	0.06454264
3514.055	0.07956941
3518.05	0.1000247
3522.05	0.1232077
3526.06	0.1522616
3530.07	0.1847458
3534.085	0.2227341
3537.99	0.2695919
3542.015	0.3192385
3546.035	0.3793161
3550.055	0.4377372
3553.965	0.5018299
3557.985	0.5683874
3562.0	0.625814
3566.01	0.6805806
3569.905	0.7329918
3574.02	0.7781088
3578.015	0.8157588
3582.01	0.8446229
3585.99	0.8624341
3590.075	0.870061
3594.04	0.8873842
3598.0	0.8916843
3602.055	0.8954729
3605.995	0.8922892
3610.04	0.8996699
3613.96	0.8935076
3617.98	0.8909001
3622.0	0.8883715
3626.0	0.8863809
3630.0	0.8905212
3633.995	0.8947632
3637.98	0.8864183
3641.96	0.8932366
3646.04	0.8952405
3649.91	0.8920434
3653.985	0.8915722
3657.955	0.8899735
3662.03	0.8828737
3666.0	0.8920266
3670.075	0.8869777
3674.05	0.8892931
3677.92	0.8972445
3682.01	0.896674
3686.0	0.8977149
3689.99	0.8922488
3693.99	0.8878591
3698.0	0.9050834
3702.02	0.901092
3706.045	0.9181206
3709.97	0.9061043
3714.015	0.9081098
3717.955	0.9156765
3722.015	0.9155016
3726.085	0.9298203
3730.05	0.9315573
3734.02	0.9261519
3738.005	0.9346594
3741.985	0.9346711
3745.98	0.9388248
3749.975	0.9560816
3753.97	0.9549561
3757.97	0.9513118
3761.975	0.9541025
3765.975	0.9579922
3770.09	0.9685334
3773.975	0.9595016
3777.975	0.9663659
3781.975	0.985201
3785.965	0.9794534
3790.06	0.9718872
3794.04	0.9821082
3798.015	0.9866614
3802.09	0.9889325
3806.05	0.9966822
3810.0	0.9936785
3814.05	1.0
3817.985	0.992565
3822.015	0.9892195
3825.935	0.9867781
3830.055	0.9788712
3833.955	0.9759452
3837.95	0.9741391
3842.045	0.9632826
3846.025	0.9531222
3850.0	0.936428
3853.965	0.9368378
3858.03	0.9464579
3862.095	0.9305987
3865.94	0.926576
3869.995	0.9249763
3873.935	0.91036
3877.985	0.9197086
3881.935	0.9198166
3885.985	0.9356374
3890.04	0.9467645
3893.99	0.9531154
3897.945	0.9631951
3902.015	0.9784769
3905.98	0.9756438
3910.06	0.980351
3914.04	0.9534931
3917.92	0.9389215
3922.03	0.8992647
3926.03	0.8364242
3929.935	0.7586123
3934.065	0.67128
3937.99	0.5830508
3942.03	0.4829531
3945.965	0.3960944
3949.915	0.3235978
3954.085	0.2524439
3958.045	0.2020685
3962.005	0.1596696
3965.975	0.1266345
3969.945	0.09900605
3974.03	0.08018222
3978.005	0.06385376
3981.985	0.05083907
3985.965	0.0405613
3990.05	0.03318373
3994.025	0.02728863
3997.995	0.02181007
4002.075	0.01855267
4006.04	0.01506553
4009.995	0.01244852
4014.055	0.01056535
;;
;; BAND I05
;;
10172.05	0.01005695
10252.15	0.02171965
10332.05	0.05056276
10412.0	0.1275947
10492.0	0.3087359
10572.05	0.5945715
10651.85	0.8610964
10732.1	1.0
10811.8	0.9831401
10891.95	0.9057158
10972.05	0.8592378
11052.1	0.8584849
11131.95	0.8608789
11212.0	0.8374839
11292.0	0.8127098
11372.05	0.8027934
11451.95	0.8180525
11531.85	0.8400606
11612.05	0.8469136
11691.85	0.8232815
11772.1	0.7950762
11852.05	0.7802072
11932.0	0.7553511
12012.1	0.7061488
12092.0	0.6443256
12172.05	0.6167783
12252.0	0.6287041
12332.0	0.5932384
12412.0	0.5123541
12491.9	0.3979295
12572.0	0.3039262
12651.85	0.2340755
12732.0	0.1679303
12811.8	0.1095595
12892.1	0.06115685
12972.0	0.03034865
13051.9	0.01365263
;;
;; BAND M12
;;
3519.83	0.01026045
3526.39	0.01345914
3532.97	0.01781433
3539.555	0.02427066
3546.255	0.0334101
3552.735	0.04600655
3559.32	0.06399111
3566.01	0.09034289
3572.575	0.1286107
3579.125	0.1825268
3585.77	0.2582171
3592.39	0.3548721
3598.99	0.471664
3605.56	0.5946765
3612.22	0.7096518
3618.745	0.8054177
3625.46	0.8676943
3631.945	0.9154772
3638.625	0.9367351
3645.185	0.9485958
3651.84	0.9545971
3658.385	0.9651333
3665.035	0.9718058
3671.575	0.9771703
3678.135	0.9798066
3684.81	0.9850128
3691.395	0.9906458
3698.0	0.9810515
3704.63	0.9870648
3711.28	0.9919534
3717.845	0.9929129
3724.325	0.9914788
3730.93	0.9912512
3737.555	0.9921283
3744.205	0.9893721
3750.86	1.0
3757.415	0.9803625
3763.975	0.9556844
3770.535	0.9016487
3777.2	0.8176761
3783.745	0.7120506
3790.395	0.5876314
3797.02	0.4689662
3803.635	0.3604668
3810.11	0.2744803
3816.785	0.2057377
3823.325	0.1526236
3830.055	0.1125029
3836.55	0.0849349
3843.23	0.06359575
3849.78	0.04871378
3856.43	0.03725139
3862.95	0.02874001
3869.565	0.0225946
3876.28	0.01780503
3882.785	0.01411891
3889.395	0.01138328
;;
;; BAND M13
;;
3911.135	0.01081169
3918.785	0.01489984
3926.465	0.0205712
3934.065	0.02918682
3941.59	0.04169068
3949.255	0.06027162
3956.725	0.08704958
3964.43	0.1300093
3972.045	0.1897233
3979.555	0.2765794
3987.18	0.3917036
3994.8	0.5238178
4002.405	0.6607296
4009.995	0.7805054
4017.675	0.8642797
4025.21	0.9271931
4032.835	0.9683831
4040.31	0.9933657
4047.97	1.0
4055.605	0.9817988
4063.205	0.9799552
4070.775	0.9674722
4078.43	0.9547541
4085.97	0.9479877
4093.6	0.9468164
4101.13	0.9542153
4108.875	0.9556623
4116.425	0.9474917
4123.995	0.9000176
4131.595	0.8030149
4139.215	0.6546556
4146.765	0.4938208
4154.455	0.3454001
4162.065	0.2361687
4169.6	0.1593283
4177.15	0.1092148
4184.83	0.07368749
4192.41	0.05110816
4200.0	0.03435938
4207.585	0.02260846
4215.16	0.01405147
4222.72	0.01066898
;;
;; BAND M14
;;
8355.04	0.0235073
8374.885	0.0701982
8394.95	0.2340697
8415.05	0.5836718
8434.97	0.8833476
8454.95	0.9366457
8474.99	0.9513265
8495.075	0.996076
8515.0	0.977416
8534.97	0.9236147
8554.97	0.8318468
8574.99	0.7771486
8595.005	0.7796648
8615.005	0.8250629
8634.96	0.8950652
8655.085	0.9728076
8675.14	1.0
8695.115	0.9598303
8715.015	0.8517393
8735.06	0.6637535
8755.04	0.4493161
8774.985	0.2658958
8794.9	0.1450269
8815.04	0.07704251
8835.195	0.03919309
8854.96	0.02036805
8875.2	0.01100759
;;
;; BAND M15
;;
9917.07	0.01001371
9966.9	0.01845636
10017.1	0.0346105
10067.2	0.06596688
10117.1	0.1267833
10167.0	0.2416004
10216.85	0.4363737
10266.95	0.6782749
10316.85	0.8660636
10366.95	0.9499095
10416.95	0.9630237
10467.0	0.9725062
10517.2	0.9891025
10567.1	1.0
10616.85	0.996449
10667.0	0.9908453
10717.0	0.9735135
10767.0	0.9495309
10817.0	0.9106273
10866.95	0.8688731
10916.85	0.8241825
10967.15	0.7898412
11017.05	0.7702649
11067.05	0.7558434
11117.0	0.7310331
11167.1	0.6682754
11216.95	0.5463219
11267.0	0.3898921
11316.95	0.24738
11366.95	0.1479027
11417.0	0.08800448
11467.0	0.0530939
11517.15	0.03199861
11567.1	0.01941886
11617.1	0.01194384
;;
;; BAND M16
;;
11157.1	0.0179805
11221.85	0.04147667
11286.9	0.1041143
11351.85	0.2493003
11417.0	0.4872016
11481.8	0.7253589
11546.9	0.8474734
11612.05	0.9008543
11676.95	0.9394188
11742.05	0.9657525
11807.05	0.9902475
11872.0	1.0
11936.9	0.9931594
12001.95	0.9362279
12067.05	0.8506504
12132.15	0.779186
12196.85	0.7425323
12262.1	0.6992319
12326.9	0.5601887
12392.1	0.3468462
12456.95	0.1641539
12522.15	0.06877448
12587.1	0.03102813
12651.85	0.0150426
